Time/us,Voltage/V
-562.0,-0.0163694
-561.52,-0.0169407
-561.04,-0.0167622
-560.5600000000001,-0.0170835
-560.0799999999999,-0.0166908
-559.6,-0.0171192
-559.12,-0.0173692
-558.6400000000001,-0.0171549
-558.16,-0.016976400000000003
-557.6800000000001,-0.016833599999999997
-557.2,-0.016833599999999997
-556.7199999999999,-0.017190599999999997
-556.24,-0.0169407
-555.76,-0.017190599999999997
-555.28,-0.0172978
-554.8,-0.0171549
-554.32,-0.017440599999999997
-553.84,-0.0172263
-553.36,-0.0171549
-552.88,-0.016619400000000003
-552.4,-0.0171549
-551.92,-0.0172978
-551.4399999999999,-0.0169407
-550.96,-0.0173692
-550.48,-0.0166908
-550.0,-0.016905
-549.52,-0.0171549
-549.0400000000001,-0.016976400000000003
-548.56,-0.016869299999999997
-548.08,-0.0172263
-547.6,-0.0169407
-547.1199999999999,-0.0167265
-546.64,-0.016869299999999997
-546.16,-0.016619400000000003
-545.6800000000001,-0.0159767
-545.1999999999999,-0.016298
-544.72,-0.0166551
-544.24,-0.0164051
-543.76,-0.0172978
-543.28,-0.016869299999999997
-542.8000000000001,-0.0167622
-542.32,-0.0172978
-541.8399999999999,-0.0162623
-541.36,-0.0167979
-540.88,-0.016583599999999997
-540.4,-0.0162266
-539.92,-0.0160124
-539.44,-0.0164408
-538.96,-0.016583599999999997
-538.48,-0.0165479
-538.0,-0.0165122
-537.52,-0.017190599999999997
-537.04,-0.016583599999999997
-536.56,-0.0166551
-536.08,-0.0157624
-535.5999999999999,-0.0166551
-535.12,-0.0160481
-534.64,-0.0162266
-534.1600000000001,-0.0160481
-533.68,-0.015869499999999998
-533.2,-0.0158338
-532.72,-0.0158338
-532.24,-0.0159767
-531.76,-0.016476499999999998
-531.28,-0.016333700000000003
-530.8000000000001,-0.0167265
-530.3199999999999,-0.0163694
-529.84,-0.0169407
-529.36,-0.0166908
-528.88,-0.0166908
-528.4,-0.0160124
-527.9200000000001,-0.0161195
-527.44,-0.0161195
-526.9599999999999,-0.015869499999999998
-526.48,-0.0155482
-526.0,-0.0156553
-525.52,-0.0160838
-525.04,-0.0157267
-524.5600000000001,-0.016190899999999998
-524.0799999999999,-0.0159767
-523.6,-0.0155839
-523.12,-0.0155482
-522.6400000000001,-0.0157624
-522.16,-0.0161552
-521.68,-0.0161195
-521.2,-0.016476499999999998
-520.7199999999999,-0.0161195
-520.24,-0.0159052
-519.76,-0.0161195
-519.2800000000001,-0.0160124
-518.8,-0.015869499999999998
-518.32,-0.016190899999999998
-517.84,-0.0154054
-517.36,-0.015084
-516.88,-0.0152268
-516.4,-0.0159052
-515.92,-0.0160124
-515.4399999999999,-0.0161552
-514.96,-0.016333700000000003
-514.48,-0.0165122
-514.0,-0.0159052
-513.52,-0.015869499999999998
-513.0400000000001,-0.0160124
-512.56,-0.0160124
-512.0799999999999,-0.0157981
-511.6,-0.015691
-511.12,-0.0161552
-510.64,-0.016833599999999997
-510.15999999999997,-0.0160838
-509.68,-0.0157981
-509.19999999999993,-0.0164051
-508.71999999999997,-0.0158338
-508.24,-0.0162266
-507.76000000000005,-0.0156553
-507.28,-0.0163694
-506.8,-0.0160124
-506.32000000000005,-0.0165122
-505.84,-0.0166551
-505.36,-0.016976400000000003
-504.88000000000005,-0.0169407
-504.4,-0.0167265
-503.91999999999996,-0.016619400000000003
-503.44,-0.016476499999999998
-502.96000000000004,-0.0167979
-502.47999999999996,-0.0167265
-502.0,-0.016833599999999997
-501.52000000000004,-0.016619400000000003
-501.03999999999996,-0.0171192
-500.56,-0.0172621
-500.08000000000004,-0.0171192
-499.6,-0.016833599999999997
-499.11999999999995,-0.016869299999999997
-498.64,-0.0166551
-498.16,-0.0166551
-497.67999999999995,-0.0167979
-497.2,-0.016583599999999997
-496.72,-0.0170478
-496.23999999999995,-0.0169407
-495.76,-0.0165122
-495.28000000000003,-0.0164051
-494.80000000000007,-0.0165479
-494.31999999999994,-0.016333700000000003
-493.84,-0.0157624
-493.36,-0.016476499999999998
-492.87999999999994,-0.0164408
-492.4,-0.0159767
-491.92,-0.0158338
-491.44000000000005,-0.0162266
-490.96,-0.0159052
-490.48,-0.0157981
-490.00000000000006,-0.0156553
-489.52,-0.0161552
-489.03999999999996,-0.0159409
-488.56,-0.0159767
-488.08000000000004,-0.0155125
-487.59999999999997,-0.0157981
-487.12,-0.0155839
-486.64000000000004,-0.0154768
-486.16,-0.0152268
-485.68,-0.0154411
-485.20000000000005,-0.0155839
-484.72,-0.0155839
-484.23999999999995,-0.0160838
-483.76,-0.0154768
-483.28,-0.0154768
-482.8,-0.0152625
-482.32,-0.0154054
-481.84,-0.014798400000000001
-481.36,-0.0151554
-480.88,-0.0151911
-480.40000000000003,-0.0155839
-479.92,-0.0153697
-479.44,-0.0149412
-478.96,-0.0151197
-478.47999999999996,-0.0154054
-478.0,-0.0149055
-477.52,-0.014584100000000001
-477.04,-0.015334
-476.56,-0.0155125
-476.08,-0.0151554
-475.6,-0.0149412
-475.12,-0.014834100000000001
-474.64000000000004,-0.0153697
-474.15999999999997,-0.015619599999999999
-473.68,-0.0151911
-473.2,-0.014798400000000001
-472.71999999999997,-0.0151554
-472.24,-0.0152982
-471.76,-0.0154411
-471.28000000000003,-0.015084
-470.8,-0.015619599999999999
-470.32,-0.015084
-469.84000000000003,-0.0155482
-469.36,-0.015691
-468.88,-0.0155839
-468.4,-0.0151911
-467.91999999999996,-0.0159052
-467.44,-0.0151911
-466.96,-0.015334
-466.48,-0.0159409
-466.0,-0.0160481
-465.52000000000004,-0.0155482
-465.04,-0.0152268
-464.56,-0.014834100000000001
-464.08,-0.0152982
-463.59999999999997,-0.0158338
-463.12,-0.0164408
-462.64,-0.0166551
-462.15999999999997,-0.016619400000000003
-461.68,-0.0160124
-461.2,-0.0157267
-460.72,-0.0159409
-460.24,-0.0160124
-459.76000000000005,-0.015691
-459.28000000000003,-0.0157624
-458.79999999999995,-0.015869499999999998
-458.32,-0.0159409
-457.84,-0.0160124
-457.36,-0.016190899999999998
-456.88,-0.0160124
-456.4,-0.0158338
-455.92,-0.0158338
-455.44,-0.0159409
-454.96000000000004,-0.015869499999999998
-454.48,-0.0160838
-454.0,-0.0155839
-453.52,-0.0157624
-453.03999999999996,-0.0154768
-452.56,-0.015084
-452.08,-0.014976900000000001
-451.6,-0.015084
-451.12,-0.0151911
-450.64,-0.014976900000000001
-450.16,-0.0151554
-449.68,-0.0152625
-449.2,-0.0151554
-448.71999999999997,-0.0152268
-448.24,-0.0151911
-447.76,-0.0149055
-447.28,-0.0152982
-446.8,-0.014548400000000001
-446.32,-0.014798400000000001
-445.84000000000003,-0.014548400000000001
-445.36,-0.014512700000000002
-444.88,-0.0150483
-444.40000000000003,-0.0150483
-443.91999999999996,-0.0152982
-443.44,-0.0151911
-442.96,-0.014798400000000001
-442.48,-0.0146555
-442.0,-0.014584100000000001
-441.52,-0.014727
-441.04,-0.014227100000000001
-440.56,-0.013905700000000002
-440.08000000000004,-0.014119999999999999
-439.6,-0.014298500000000002
-439.12,-0.0146555
-438.64,-0.014584100000000001
-438.15999999999997,-0.0140486
-437.68,-0.014119999999999999
-437.2,-0.013727200000000002
-436.71999999999997,-0.013691499999999999
-436.24,-0.0134773
-435.76,-0.0134416
-435.28000000000003,-0.013834299999999999
-434.8,-0.014262799999999999
-434.32000000000005,-0.013691499999999999
-433.84,-0.014155700000000002
-433.35999999999996,-0.013834299999999999
-432.88,-0.013905700000000002
-432.4,-0.013834299999999999
-431.92,-0.013834299999999999
-431.44,-0.0134773
-430.96,-0.0136558
-430.48,-0.013512999999999999
-430.0,-0.013834299999999999
-429.52000000000004,-0.013512999999999999
-429.04,-0.0135844
-428.56,-0.0137629
-428.08,-0.0136201
-427.59999999999997,-0.013727200000000002
-427.12,-0.014227100000000001
-426.64,-0.014369899999999998
-426.16,-0.014012799999999999
-425.68,-0.013834299999999999
-425.2,-0.013905700000000002
-424.72,-0.013727200000000002
-424.24,-0.0133701
-423.76,-0.0140843
-423.28,-0.014012799999999999
-422.8,-0.014012799999999999
-422.32,-0.013834299999999999
-421.84,-0.0135487
-421.36,-0.0136201
-420.88,-0.0137629
-420.40000000000003,-0.0132987
-419.92,-0.0134059
-419.44,-0.013512999999999999
-418.96000000000004,-0.013262999999999999
-418.47999999999996,-0.0135844
-418.0,-0.0132987
-417.52,-0.013227299999999999
-417.04,-0.013691499999999999
-416.56,-0.013512999999999999
-416.08,-0.014119999999999999
-415.6,-0.0136558
-415.12,-0.0130131
-414.64000000000004,-0.0129417
-414.16,-0.0125846
-413.67999999999995,-0.0128703
-413.2,-0.0131559
-412.71999999999997,-0.0126203
-412.24,-0.0126203
-411.76,-0.0128703
-411.28,-0.013227299999999999
-410.8,-0.013512999999999999
-410.32,-0.0134059
-409.84000000000003,-0.0127632
-409.36,-0.0130131
-408.88,-0.0129774
-408.4,-0.0128346
-407.91999999999996,-0.012406100000000002
-407.44,-0.0130131
-406.96,-0.0130131
-406.48,-0.0128703
-406.0,-0.0137986
-405.52,-0.0134416
-405.04,-0.0135487
-404.56,-0.014012799999999999
-404.08000000000004,-0.013905700000000002
-403.59999999999997,-0.013691499999999999
-403.12,-0.014227100000000001
-402.64,-0.0136201
-402.15999999999997,-0.0137986
-401.68,-0.0135844
-401.2,-0.0136558
-400.72,-0.013727200000000002
-400.24,-0.014262799999999999
-399.76,-0.0140486
-399.28000000000003,-0.014691299999999997
-398.8,-0.014227100000000001
-398.32,-0.014834100000000001
-397.84,-0.013727200000000002
-397.36,-0.013512999999999999
-396.88,-0.013512999999999999
-396.4,-0.013834299999999999
-395.92,-0.014227100000000001
-395.44,-0.014369899999999998
-394.96000000000004,-0.014155700000000002
-394.48,-0.014012799999999999
-394.0,-0.014227100000000001
-393.52,-0.014441299999999999
-393.03999999999996,-0.014334200000000002
-392.56,-0.014012799999999999
-392.08,-0.0137986
-391.6,-0.013869999999999999
-391.12,-0.013869999999999999
-390.64,-0.013905700000000002
-390.16,-0.013941399999999998
-389.68,-0.014191399999999998
-389.20000000000005,-0.014512700000000002
-388.72,-0.014727
-388.23999999999995,-0.014869799999999997
-387.76,-0.0155482
-387.28,-0.014441299999999999
-386.8,-0.0147627
-386.32,-0.0146555
-385.84,-0.014727
-385.36,-0.015012600000000001
-384.88,-0.014834100000000001
-384.40000000000003,-0.014548400000000001
-383.92,-0.014976900000000001
-383.44,-0.014441299999999999
-382.96,-0.014976900000000001
-382.47999999999996,-0.0149055
-382.0,-0.0147627
-381.52,-0.015084
-381.04,-0.0149412
-380.56,-0.0150483
-380.08,-0.014227100000000001
-379.6,-0.014334200000000002
-379.12,-0.014691299999999997
-378.64000000000004,-0.014369899999999998
-378.15999999999997,-0.0146555
-377.68,-0.014405600000000001
-377.2,-0.014262799999999999
-376.71999999999997,-0.014405600000000001
-376.24,-0.014619799999999999
-375.76,-0.014548400000000001
-375.28000000000003,-0.014405600000000001
-374.8,-0.0152982
-374.32,-0.014727
-373.84000000000003,-0.013977100000000001
-373.35999999999996,-0.013869999999999999
-372.88,-0.014155700000000002
-372.4,-0.014512700000000002
-371.92,-0.014405600000000001
-371.44,-0.014334200000000002
-370.96,-0.014727
-370.48,-0.0151197
-370.0,-0.014619799999999999
-369.52000000000004,-0.014512700000000002
-369.04,-0.014405600000000001
-368.56,-0.014155700000000002
-368.08,-0.0135844
-367.59999999999997,-0.013834299999999999
-367.12,-0.013727200000000002
-366.64,-0.014369899999999998
-366.16,-0.014619799999999999
-365.68,-0.014227100000000001
-365.2,-0.014227100000000001
-364.72,-0.013727200000000002
-364.24,-0.014191399999999998
-363.76000000000005,-0.0137986
-363.28,-0.014119999999999999
-362.79999999999995,-0.014119999999999999
-362.32,-0.014691299999999997
-361.84,-0.0146555
-361.36,-0.0149055
-360.88,-0.0154768
-360.40000000000003,-0.0149055
-359.92,-0.014691299999999997
-359.44,-0.014298500000000002
-358.96000000000004,-0.0146555
-358.48,-0.014262799999999999
-358.0,-0.014405600000000001
-357.52,-0.0147627
-357.03999999999996,-0.0151554
-356.56,-0.014976900000000001
-356.08,-0.014976900000000001
-355.6,-0.014798400000000001
-355.12,-0.014976900000000001
-354.64,-0.014834100000000001
-354.16,-0.0147627
-353.68,-0.014441299999999999
-353.2,-0.014548400000000001
-352.71999999999997,-0.0140843
-352.24,-0.014441299999999999
-351.76,-0.014512700000000002
-351.28,-0.0146555
-350.8,-0.014619799999999999
-350.32,-0.0152982
-349.84000000000003,-0.0151911
-349.36,-0.0149412
-348.88,-0.015084
-348.40000000000003,-0.014834100000000001
-347.91999999999996,-0.014334200000000002
-347.44,-0.014727
-346.96,-0.0150483
-346.48,-0.014976900000000001
-346.0,-0.014548400000000001
-345.52,-0.0152982
-345.04,-0.0153697
-344.56,-0.0147627
-344.08000000000004,-0.014798400000000001
-343.6,-0.015012600000000001
-343.11999999999995,-0.014405600000000001
-342.64,-0.0146555
-342.15999999999997,-0.0147627
-341.68,-0.014976900000000001
-341.2,-0.0149412
-340.72,-0.015012600000000001
-340.24,-0.014227100000000001
-339.76,-0.015334
-339.28000000000003,-0.0151554
-338.8,-0.0147627
-338.32,-0.0151197
-337.84,-0.0150483
-337.35999999999996,-0.0152982
-336.88,-0.014976900000000001
-336.4,-0.015334
-335.92,-0.015084
-335.44,-0.014798400000000001
-334.96000000000004,-0.0153697
-334.48,-0.014619799999999999
-334.0,-0.015084
-333.52000000000004,-0.0149055
-333.03999999999996,-0.015012600000000001
-332.56,-0.0152982
-332.08,-0.0154054
-331.59999999999997,-0.0149055
-331.12,-0.0151911
-330.64,-0.0155839
-330.16,-0.014727
-329.68,-0.0147627
-329.2,-0.014441299999999999
-328.72,-0.014155700000000002
-328.24,-0.014119999999999999
-327.76,-0.014334200000000002
-327.28,-0.013727200000000002
-326.8,-0.014369899999999998
-326.32,-0.014798400000000001
-325.84,-0.0146555
-325.36,-0.014619799999999999
-324.88,-0.014262799999999999
-324.40000000000003,-0.014441299999999999
-323.92,-0.014834100000000001
-323.44,-0.0147627
-322.96,-0.014548400000000001
-322.47999999999996,-0.014227100000000001
-322.0,-0.014869799999999997
-321.52,-0.0146555
-321.04,-0.0146555
-320.56,-0.015084
-320.08,-0.0152982
-319.6,-0.014834100000000001
-319.12,-0.014369899999999998
-318.64000000000004,-0.014119999999999999
-318.16,-0.0146555
-317.67999999999995,-0.014619799999999999
-317.2,-0.0149412
-316.71999999999997,-0.014798400000000001
-316.24,-0.0152268
-315.76,-0.0157267
-315.28000000000003,-0.014976900000000001
-314.8,-0.014834100000000001
-314.32,-0.014869799999999997
-313.84000000000003,-0.0149055
-313.36,-0.0150483
-312.88,-0.015619599999999999
-312.4,-0.015691
-311.91999999999996,-0.0156553
-311.44,-0.0160481
-310.96,-0.015619599999999999
-310.48,-0.0154768
-310.0,-0.0160481
-309.52000000000004,-0.0157267
-309.04,-0.0154411
-308.56,-0.0152982
-308.08000000000004,-0.015691
-307.59999999999997,-0.0152982
-307.12,-0.0151197
-306.64,-0.0154054
-306.15999999999997,-0.0155482
-305.68,-0.0154768
-305.2,-0.0155839
-304.72,-0.0154411
-304.24,-0.0155839
-303.76000000000005,-0.0155839
-303.28000000000003,-0.0157981
-302.79999999999995,-0.0152982
-302.32,-0.015619599999999999
-301.84,-0.0157981
-301.36,-0.015691
-300.88,-0.0159409
-300.4,-0.0160481
-299.92,-0.0160838
-299.44,-0.016583599999999997
-298.96000000000004,-0.0160838
-298.48,-0.0162266
-298.0,-0.0160124
-297.52,-0.0154411
-297.03999999999996,-0.0157981
-296.56,-0.0154768
-296.08,-0.014976900000000001
-295.6,-0.0153697
-295.12,-0.0160838
-294.64,-0.0161552
-294.16,-0.0155839
-293.68,-0.0159052
-293.20000000000005,-0.015691
-292.71999999999997,-0.0154768
-292.23999999999995,-0.015619599999999999
-291.76,-0.015619599999999999
-291.28,-0.0151197
-290.8,-0.014834100000000001
-290.32,-0.0149412
-289.84000000000003,-0.014976900000000001
-289.36,-0.0154054
-288.88,-0.0154768
-288.40000000000003,-0.0159052
-287.92,-0.0154768
-287.44,-0.0153697
-286.96,-0.014798400000000001
-286.47999999999996,-0.0155839
-286.0,-0.0154768
-285.52,-0.015619599999999999
-285.04,-0.0157267
-284.56,-0.0152268
-284.08000000000004,-0.0155839
-283.6,-0.0151197
-283.12,-0.0154411
-282.64,-0.0155839
-282.15999999999997,-0.0156553
-281.68,-0.0160838
-281.2,-0.0154411
-280.71999999999997,-0.0157981
-280.24,-0.0160124
-279.76,-0.0163694
-279.28000000000003,-0.0157267
-278.8,-0.0157624
-278.32000000000005,-0.0152982
-277.84000000000003,-0.016190899999999998
-277.35999999999996,-0.0157624
-276.88,-0.0159052
-276.4,-0.015691
-275.92,-0.0167979
-275.44,-0.0162623
-274.96,-0.016476499999999998
-274.48,-0.016298
-274.0,-0.015869499999999998
-273.52000000000004,-0.0159409
-273.04,-0.0157267
-272.55999999999995,-0.0155125
-272.08,-0.0160838
-271.59999999999997,-0.0165122
-271.12,-0.0162266
-270.64,-0.016583599999999997
-270.16,-0.015869499999999998
-269.68,-0.0164408
-269.2,-0.016190899999999998
-268.72,-0.0164408
-268.24,-0.0163694
-267.76,-0.016190899999999998
-267.28,-0.0164408
-266.79999999999995,-0.0162266
-266.32,-0.0160124
-265.84,-0.0161552
-265.36,-0.0162266
-264.88,-0.0165122
-264.40000000000003,-0.016333700000000003
-263.92,-0.0164051
-263.44,-0.0167979
-262.96000000000004,-0.0165122
-262.47999999999996,-0.016298
-262.0,-0.0164051
-261.52,-0.016333700000000003
-261.03999999999996,-0.0164408
-260.56,-0.0159767
-260.08,-0.016476499999999998
-259.6,-0.0166551
-259.12,-0.0170121
-258.64000000000004,-0.0171192
-258.16,-0.0171192
-257.68,-0.0169407
-257.2,-0.0170121
-256.71999999999997,-0.0173335
-256.24,-0.0171549
-255.76,-0.0160481
-255.27999999999997,-0.016833599999999997
-254.8,-0.016333700000000003
-254.32,-0.016583599999999997
-253.84,-0.0167622
-253.35999999999999,-0.016905
-252.88000000000002,-0.0172621
-252.4,-0.016905
-251.92,-0.0170478
-251.44000000000003,-0.016905
-250.95999999999998,-0.0167979
-250.48000000000002,-0.0167622
-250.0,-0.0164408
-249.51999999999998,-0.0165122
-249.04000000000002,-0.0167265
-248.55999999999997,-0.0166908
-248.08,-0.0170478
-247.6,-0.0167622
-247.11999999999998,-0.0170121
-246.64000000000001,-0.0166551
-246.15999999999997,-0.0170478
-245.68,-0.016869299999999997
-245.2,-0.0164408
-244.72000000000003,-0.016976400000000003
-244.24,-0.016190899999999998
-243.76,-0.016190899999999998
-243.28,-0.0170835
-242.79999999999998,-0.016190899999999998
-242.32000000000002,-0.015869499999999998
-241.84,-0.016190899999999998
-241.36,-0.0165122
-240.88,-0.0164408
-240.4,-0.0162266
-239.92,-0.0160838
-239.44,-0.0161195
-238.96,-0.0162266
-238.48,-0.0161195
-238.0,-0.015691
-237.52,-0.0163694
-237.04,-0.0155482
-236.56,-0.0157981
-236.07999999999998,-0.0152982
-235.6,-0.0159052
-235.12,-0.0154411
-234.64000000000001,-0.0159767
-234.16,-0.0160124
-233.68,-0.0160838
-233.2,-0.0157981
-232.72,-0.0158338
-232.24,-0.015691
-231.76000000000002,-0.016190899999999998
-231.28,-0.0159052
-230.79999999999998,-0.0158338
-230.32,-0.016190899999999998
-229.84,-0.015619599999999999
-229.36,-0.0154768
-228.88000000000002,-0.0159052
-228.39999999999998,-0.0155125
-227.92,-0.015619599999999999
-227.44,-0.0159409
-226.96,-0.0159052
-226.48000000000002,-0.0157267
-226.0,-0.015691
-225.51999999999998,-0.0155482
-225.04,-0.0160124
-224.56,-0.0159052
-224.08,-0.0155839
-223.6,-0.0153697
-223.12,-0.015334
-222.64,-0.0159052
-222.16,-0.0155839
-221.68,-0.0157981
-221.20000000000002,-0.0161195
-220.72,-0.0164408
-220.24,-0.0160838
-219.76,-0.0160124
-219.28,-0.0160124
-218.8,-0.0157981
-218.32,-0.0160481
-217.84,-0.0161195
-217.35999999999999,-0.0161195
-216.88,-0.016190899999999998
-216.4,-0.0160481
-215.92,-0.0159409
-215.44,-0.0159767
-214.96,-0.0157981
-214.48,-0.0157981
-214.0,-0.0162623
-213.52,-0.0160481
-213.04,-0.0164051
-212.56,-0.0162266
-212.08,-0.015619599999999999
-211.6,-0.015619599999999999
-211.12,-0.0154768
-210.64,-0.0155125
-210.16,-0.0155125
-209.68,-0.0159052
-209.20000000000002,-0.0165479
-208.72,-0.0164051
-208.23999999999998,-0.0167265
-207.76,-0.016583599999999997
-207.28,-0.016869299999999997
-206.8,-0.0167622
-206.32000000000002,-0.016869299999999997
-205.83999999999997,-0.016190899999999998
-205.35999999999999,-0.0159409
-204.88,-0.0157624
-204.4,-0.0152625
-203.92000000000002,-0.0155839
-203.44,-0.015691
-202.95999999999998,-0.016333700000000003
-202.48,-0.0159767
-202.0,-0.0164051
-201.52,-0.0160838
-201.04000000000002,-0.015869499999999998
-200.56,-0.0159409
-200.07999999999998,-0.0157267
-199.6,-0.0155125
-199.12,-0.0159409
-198.64000000000001,-0.0160838
-198.16,-0.0152625
-197.68,-0.015869499999999998
-197.2,-0.016190899999999998
-196.72,-0.0157981
-196.24,-0.0164408
-195.76,-0.0162266
-195.28,-0.0161195
-194.8,-0.0159767
-194.32,-0.0154411
-193.84,-0.0159767
-193.36,-0.0157981
-192.88,-0.0157624
-192.4,-0.015691
-191.92,-0.0157267
-191.44,-0.0160838
-190.96,-0.0160838
-190.48,-0.016298
-190.0,-0.0161552
-189.52,-0.0160481
-189.04,-0.0157981
-188.56,-0.0158338
-188.07999999999998,-0.0150483
-187.6,-0.0149412
-187.12,-0.0151911
-186.64000000000001,-0.015691
-186.16,-0.0160124
-185.67999999999998,-0.0159052
